"2 theta, degree"	Intensity
7.0144	24868.9923
7.0314	24723.026
7.0484	24776.6393
7.0654	24816.3415
7.0824	24855.5135
7.0994	24656.6293
7.1164	24710.0578
7.1334	24861.1133
7.1504	24762.0445
7.1674	24784.2622
7.1844	24947.6734
7.2014	24851.9661
7.2184	24810.637
7.2354	24821.8582
7.2524	24976.1222
7.2694	24740.21
7.2864	24764.7795
7.3034	24869.7418
7.3204	24828.1381
7.3374	24814.8548
7.3544	24749.298
7.3714	24761.3698
7.3884	24689.6831
7.4054	24651.3591
7.4224	24734.0314
7.4394	24661.7994
7.4564	24721.7201
7.4734	24800.4226
7.4904	24636.296
7.5074	24732.8461
7.5244	24736.4268
7.5414	24589.0507
7.5584	24537.2507
7.5754	24591.3724
7.5924	24671.5719
7.6094	24637.3741
7.6264	24691.2373
7.6434	24758.0531
7.6604	24479.056
7.6774	24459.6006
7.6944	24508.1091
7.7114	24649.7156
7.7284	24476.8471
7.7454	24388.6759
7.7624	24573.1561
7.7794	24572.8411
7.7964	24444.4722
7.8134	24494.1695
7.8304	24468.8042
7.8474	24367.3808
7.8644	24503.9357
7.8814	24597.2732
7.8984	24490.5993
7.9154	24616.6263
7.9324	24284.8305
7.9494	24240.384
7.9664	24580.6792
7.9834	24218.231
8.0004	24354.656
8.0174	24421.0698
8.0344	24473.3495
8.0514	24332.6961
8.0684	24597.2992
8.0854	24584.807
8.1024	24295.6216
8.1194	24151.8619
8.1364	24054.3854
8.1534	24204.9119
8.1704	24404.2046
8.1874	24421.7729
8.2044	24466.3157
8.2214	24431.2367
8.2384	24139.2477
8.2554	24267.0073
8.2724	24407.1545
8.2894	24215.7342
8.3064	24188.7061
8.3234	24317.3134
8.3404	24110.3096
8.3574	24080.2793
8.3744	24290.1908
8.3914	24396.4462
8.4084	24212.5097
8.4254	24129.4141
8.4424	24300.0418
8.4594	24425.7358
8.4764	24339.1195
8.4934	24234.967
8.5104	24323.1356
8.5274	24284.3063
8.5444	24122.5631
8.5614	24219.4771
8.5784	24184.0304
8.5954	24279.243
8.6124	24168.526
8.6294	24041.9158
8.6464	24190.3124
8.6634	24466.2599
8.6804	24297.2034
8.6974	24127.0786
8.7144	24255.0709
8.7314	24123.2937
8.7484	24061.9838
8.7654	24299.5963
8.7824	24187.5448
8.7994	24112.3545
8.8164	24386.0707
8.8334	24028.6406
8.8504	23797.9561
8.8674	24019.6474
8.8844	23793.9039
8.9014	24020.9703
8.9184	23827.4908
8.9354	23921.1131
8.9524	24252.947
8.9694	23778.3649
8.9864	23904.3244
9.0034	23883.3857
9.0204	24134.4264
9.0374	24071.4683
9.0544	23989.7759
9.0714	24011.0247
9.0884	24133.1549
9.1054	23972.6507
9.1224	24102.7282
9.1394	24017.9371
9.1564	24112.4992
9.1734	24017.6526
9.1904	24178.7083
9.2074	23968.1113
9.2244	23744.2369
9.2414	23909.6468
9.2584	23863.674
9.2754	23773.402
9.2924	23979.7181
9.3094	24130.4412
9.3264	23996.3311
9.3434	23989.0436
9.3604	24061.422
9.3774	24136.644
9.3944	24109.2034
9.4114	24021.0499
9.4284	23920.4215
9.4454	23949.8486
9.4624	23997.3074
9.4794	23983.3502
9.4964	24143.8525
9.5134	24186.6074
9.5304	24259.8582
9.5474	24260.6374
9.5644	24433.7052
9.5814	24347.3687
9.5984	24514.9168
9.6154	24451.189
9.6324	24427.1485
9.6494	24083.4013
9.6664	24105.304
9.6834	24373.6203
9.7004	24229.0911
9.7174	24523.3712
9.7344	24752.7214
9.7514	25068.8782
9.7684	25434.26
9.7854	25463.9296
9.8024	25927.4197
9.8194	26152.5639
9.8364	26142.0741
9.8534	26341.3829
9.8704	26604.6469
9.8874	26908.5621
9.9044	28138.0168
9.9214	28873.1957
9.9384	30168.1431
9.9554	31181.7451
9.9724	33350.5669
9.9894	35881.9994
10.0064	37848.23
10.0234	38902.7519
10.0404	39403.2075
10.0574	38942.3957
10.0744	37525.4888
10.0914	35288.6751
10.1084	32407.5534
10.1254	29423.0145
10.1424	26824.7882
10.1594	25359.4962
10.1764	24618.4402
10.1934	24129.1612
10.2104	23734.8691
10.2274	23807.8758
10.2444	23770.0355
10.2614	23736.8317
10.2784	23695.2274
10.2954	23551.1696
10.3124	23344.3579
10.3294	23583.8162
10.3464	23757.8405
10.3634	23612.994
10.3804	23588.9687
10.3974	23654.4732
10.4144	23628.8052
10.4314	23802.026
10.4484	23639.2133
10.4654	23456.296
10.4824	23520.9888
10.4994	23432.2176
10.5164	23436.9511
10.5334	23676.346
10.5504	23724.1946
10.5674	23539.7525
10.5844	23561.0626
10.6014	23540.0915
10.6184	23458.9917
10.6354	23659.7003
10.6524	23578.8891
10.6694	23534.069
10.6864	23639.1944
10.7034	23861.273
10.7204	23656.1151
10.7374	23652.4017
10.7544	23908.5527
10.7714	23990.9988
10.7884	24003.9951
10.8054	24186.009
10.8224	24474.3216
10.8394	24627.8928
10.8564	24701.2147
10.8734	24909.6462
10.8904	25451.0416
10.9074	26515.0697
10.9244	27210.0543
10.9414	27719.8988
10.9584	28916.1783
10.9754	29573.9051
10.9924	30048.0565
11.0094	30850.8293
11.0264	31093.0233
11.0434	31000.9379
11.0604	30366.1543
11.0774	29694.0819
11.0944	30339.6809
11.1114	31706.1687
11.1284	34348.8739
11.1454	38536.4952
11.1624	40989.4659
11.1794	40271.7539
11.1964	35564.4727
11.2134	30109.5364
11.2304	26331.1144
11.2474	24335.4926
11.2644	23746.1176
11.2814	23542.3648
11.2984	23623.8239
11.3154	23708.4502
11.3324	23514.881
11.3494	23495.3622
11.3664	23673.8664
11.3834	23586.9108
11.4004	23509.0845
11.4174	23685.1428
11.4344	23627.6295
11.4514	23787.744
11.4684	23806.6222
11.4854	24122.1069
11.5024	24400.5932
11.5194	24555.1882
11.5364	24670.9425
11.5534	25094.2443
11.5704	25520.0647
11.5874	25672.6017
11.6044	26004.8211
11.6214	26309.923
11.6384	26785.5269
11.6554	28010.4379
11.6724	29931.9334
11.6894	32094.3086
11.7064	34551.5415
11.7234	36000.6266
11.7404	36224.6807
11.7574	37954.1664
11.7744	40485.208
11.7914	44008.8539
11.8084	46753.2627
11.8254	49548.9682
11.8424	54137.4434
11.8594	58676.7528
11.8764	61061.0825
11.8934	64292.8136
11.9104	69915.4541
11.9274	77631.9603
11.9444	85456.1749
11.9614	87214.3515
11.9784	72503.1647
11.9954	55367.6981
12.0124	41180.5981
12.0294	32488.7878
12.0464	27552.5286
12.0634	25417.2751
12.0804	24282.7548
12.0974	23829.6718
12.1144	23841.2489
12.1314	23661.7329
12.1484	23413.3702
12.1654	23287.0312
12.1824	23307.8066
12.1994	23144.4746
12.2164	23116.2684
12.2334	23146.358
12.2504	23079.6397
12.2674	23136.7645
12.2844	23160.1422
12.3014	23022.3893
12.3184	22964.5367
12.3354	22969.9259
12.3524	23098.3949
12.3694	23274.2568
12.3864	23168.5501
12.4034	23010.241
12.4204	23014.3435
12.4374	23070.0921
12.4544	23363.9861
12.4714	23400.29
12.4884	23480.2485
12.5054	23573.3644
12.5224	23513.7037
12.5394	23740.7852
12.5564	23761.2275
12.5734	23608.9155
12.5904	23902.3821
12.6074	24386.4715
12.6244	24593.5183
12.6414	24879.1174
12.6584	24937.9771
12.6754	25512.481
12.6924	25690.0941
12.7094	26159.8144
12.7264	26808.159
12.7434	27540.4855
12.7604	28467.0022
12.7774	29563.774
12.7944	30176.5809
12.8114	31259.568
12.8284	32120.7537
12.8454	33148.2844
12.8624	34457.0119
12.8794	34878.8164
12.8964	34775.5395
12.9134	33328.0019
12.9304	31068.5556
12.9474	28984.3034
12.9644	27248.631
12.9814	25828.4104
12.9984	24926.4802
13.0154	23837.893
13.0324	23765.7676
13.0494	23250.0481
13.0664	23093.0998
13.0834	22935.9284
13.1004	22995.7919
13.1174	22897.0315
13.1344	22819.4729
13.1514	22784.4366
13.1684	22906.4572
13.1854	22856.8891
13.2024	22811.3146
13.2194	22696.7346
13.2364	22572.6551
13.2534	22607.1018
13.2704	22631.3878
13.2874	22689.9823
13.3044	22700.6241
13.3214	22653.382
13.3384	22508.4137
13.3554	22523.1943
13.3724	22611.4285
13.3894	22399.7824
13.4064	22340.3422
13.4234	22493.8636
13.4404	22579.2304
13.4574	22593
13.4744	22467.9188
13.4914	22391.5938
13.5084	22647.3307
13.5254	22660.7503
13.5424	22714.2061
13.5594	22702.5542
13.5764	22548.5294
13.5934	22305.0968
13.6104	22739.1123
13.6274	22596.6625
13.6444	22604.7846
13.6614	22564.512
13.6784	22301.7119
13.6954	22350.266
13.7124	22525.9981
13.7294	22534.1413
13.7464	22432.3617
13.7634	22680.3111
13.7804	22385.0848
13.7974	22331.6867
13.8144	22303.4053
13.8314	22403.5441
13.8484	22636.3569
13.8654	22460.8719
13.8824	22387.3326
13.8994	22600.7788
13.9164	22303.9251
13.9334	22338.4953
13.9504	22338.5738
13.9674	22306.3304
13.9844	22575.6894
14.0014	22422.4337
14.0184	22422.7148
14.0354	22267.8139
14.0524	22494.811
14.0694	22364.1217
14.0864	22453.95
14.1034	22385.7401
14.1204	22246.2666
14.1374	22288.8432
14.1544	22571.9325
14.1714	22583.5699
14.1884	22567.5432
14.2054	22388.7835
14.2224	22200.8805
14.2394	22334.4689
14.2564	22559.1384
14.2734	22322.5239
14.2904	22345.1352
14.3074	22436.7224
14.3244	22391.5465
14.3414	22428.3644
14.3584	22501.8007
14.3754	22396.3638
14.3924	22570.4638
14.4094	22407.3492
14.4264	22063.3967
14.4434	22292.0866
14.4604	22428.4913
14.4774	22438.16
14.4944	22509.1458
14.5114	22493.5339
14.5284	22417.287
14.5454	22380.6088
14.5624	22337.6587
14.5794	22361.2743
14.5964	22598.6294
14.6134	22337.4971
14.6304	22402.6306
14.6474	22261.4537
14.6644	22552.3089
14.6814	22365.7522
14.6984	22470.6219
14.7154	22389.9441
14.7324	22553.9742
14.7494	22383.583
14.7664	22372.0909
14.7834	22453.3785
14.8004	22302.8865
14.8174	22505.314
14.8344	22201.263
14.8514	22548.517
14.8684	22422.2073
14.8854	22524.9617
14.9024	22505.3261
14.9194	22204.8295
14.9364	22436.666
14.9534	22608.3406
14.9704	22508.2371
14.9874	22251.9218
15.0044	22547.8574
15.0214	22347.0829
15.0384	22678.1086
15.0554	22380.5706
15.0724	22317.2055
15.0894	22405.1408
15.1064	22368.2634
15.1234	22285.1286
15.1404	22480.4366
15.1574	22421.8325
15.1744	22365.8983
15.1914	22466.4926
15.2084	22211.5743
15.2254	22254.1953
15.2424	22353.2486
15.2594	22268.8159
15.2764	22428.996
15.2934	22443.3376
15.3104	22407.4354
15.3274	22511.2953
15.3444	22288.1656
15.3614	22343.4818
15.3784	22466.5278
15.3954	22448.7542
15.4124	22497.5384
15.4294	22403.8454
15.4464	22296.8308
15.4634	22440.4288
15.4804	22399.8247
15.4974	22384.4456
15.5144	22270.3548
15.5314	22437.5539
15.5484	22708.3498
15.5654	22717.6476
15.5824	22653.4391
15.5994	22648.1675
15.6164	22476.7841
15.6334	22267.4985
15.6504	22522.3169
15.6674	22644.8157
15.6844	22761.4431
15.7014	22764.3827
15.7184	22934.5561
15.7354	23017.4461
15.7524	23076.4091
15.7694	22670.7096
15.7864	23001.7091
15.8034	23309.4161
15.8204	23310.0914
15.8374	23333.7603
15.8544	23300.6772
15.8714	23636.4741
15.8884	23896.1375
15.9054	23701.4411
15.9224	23957.6711
15.9394	24672.1166
15.9564	25302.2007
15.9734	26011.1183
15.9904	27188.5768
16.0074	27822.1644
16.0244	28959.5633
16.0414	30087.0811
16.0584	31323.8738
16.0754	33149.7388
16.0924	34772.4088
16.1094	36409.9511
16.1264	37922.8674
16.1434	39403.2428
16.1604	40473.1639
16.1774	42330.9881
16.1944	41695.7407
16.2114	38324.7202
16.2284	34790.6554
16.2454	31384.8611
16.2624	28941.0154
16.2794	27296.6611
16.2964	25933.5595
16.3134	25103.0447
16.3304	24423.1232
16.3474	23741.4366
16.3644	23361.5979
16.3814	23275.0826
16.3984	23402.8014
16.4154	23567.1794
16.4324	23666.8549
16.4494	23858.6335
16.4664	23763.8193
16.4834	23633.1537
16.5004	23703.2405
16.5174	23456.9469
16.5344	23386.5672
16.5514	23880.5533
16.5684	24162.5737
16.5854	24248.794
16.6024	23834.7299
16.6194	23904.145
16.6364	23465.1705
16.6534	22927.7214
16.6704	22776.5089
16.6874	22837.1874
16.7044	22655.5198
16.7214	22662.6499
16.7384	22894.547
16.7554	22578.8348
16.7724	22898.3334
16.7894	22693.0397
16.8064	22747.4309
16.8234	22849.1351
16.8404	22865.7225
16.8574	22851.9822
16.8744	22780.9511
16.8914	22726.0647
16.9084	22661.773
16.9254	22835.9728
16.9424	22785.0355
16.9594	22776.4012
16.9764	22867.5171
16.9934	23023.0003
17.0104	23148.1099
17.0274	23014.2282
17.0444	22711.6511
17.0614	22957.3917
17.0784	23383.9546
17.0954	23198.2937
17.1124	23223.2618
17.1294	23268.3548
17.1464	23262.7004
17.1634	23408.8627
17.1804	23407.4293
17.1974	23279.7457
17.2144	23468.9041
17.2314	23639.7551
17.2484	23884.4748
17.2654	24043.0535
17.2824	24397.4379
17.2994	25012.3064
17.3164	25357.7259
17.3334	25952.5504
17.3504	26506.1154
17.3674	27345.7559
17.3844	28391.8774
17.4014	29363.8156
17.4184	30303.9203
17.4354	31513.3216
17.4524	32910.6925
17.4694	34890.4504
17.4864	38490.3696
17.5034	43356.6096
17.5204	47047.6185
17.5374	49489.128
17.5544	50890.7261
17.5714	47704.4205
17.5884	43316.3743
17.6054	42657.4621
17.6224	47578.4824
17.6394	58287.0549
17.6564	70018.2605
17.6734	77736.9094
17.6904	79633.2479
17.7074	70760.4082
17.7244	57985.9486
17.7414	47793.3116
17.7584	34666.1768
17.7754	27292.4815
17.7924	25000.4363
17.8094	24060.7184
17.8264	23834.4423
17.8434	23774.1379
17.8604	23649.8259
17.8774	23357.1408
17.8944	23498.4273
17.9114	23400.0071
17.9284	23446.0374
17.9454	23227.1795
17.9624	23216.8056
17.9794	23331.1022
17.9964	23181.594
18.0134	23102.0883
18.0304	22957.7073
18.0474	22921.7829
18.0644	22960.1964
18.0814	22819.8552
18.0984	22979.0733
18.1154	23097.4414
18.1324	23074.4512
18.1494	22705.1617
18.1664	22690.1015
18.1834	22981.6203
18.2004	22934.1131
18.2174	22890.4819
18.2344	22795.8896
18.2514	22944.0841
18.2684	22930.7865
18.2854	22885.8882
18.3024	22972.0008
18.3194	22810.1713
18.3364	22946.7262
18.3534	22817.5572
18.3704	22769.2963
18.3874	22972.5791
18.4044	23058.411
18.4214	22974.9677
18.4384	22932.025
18.4554	22851.0093
18.4724	23093.9644
18.4894	23000.8255
18.5064	22939.2032
18.5234	22922.1001
18.5404	22945.6375
18.5574	22838.379
18.5744	22751.0221
18.5914	22870.6004
18.6084	22838.8763
18.6254	22956.7822
18.6424	22854.3585
18.6594	22866.2094
18.6764	22888.8242
18.6934	23159.9123
18.7104	23219.4018
18.7274	22657.1175
18.7444	22777.6116
18.7614	23065.5482
18.7784	23077.9693
18.7954	23078.6875
18.8124	22966.5553
18.8294	22803.9084
18.8464	23161.9891
18.8634	23316.8941
18.8804	22975.0845
18.8974	23484.4435
18.9144	23563.1339
18.9314	23820.3382
18.9484	23950.5894
18.9654	24205.4653
18.9824	24341.0292
18.9994	24353.8352
19.0164	24967.3902
19.0334	25390.2901
19.0504	25648.9769
19.0674	25257.2539
19.0844	24956.4625
19.1014	24554.338
19.1184	24088.2966
19.1354	23606.6411
19.1524	23360
19.1694	23216.8248
19.1864	23058.0689
19.2034	23081.1362
19.2204	22966.0189
19.2374	22922.1589
19.2544	22929.9324
19.2714	22955.0081
19.2884	22904.2192
19.3054	23038.9553
19.3224	23152.3449
19.3394	23170.6338
19.3564	23214.4177
19.3734	23288.949
19.3904	23335.2988
19.4074	23520.7077
19.4244	23668.7369
19.4414	23888.6047
19.4584	24242.8707
19.4754	24599.811
19.4924	25096.5741
19.5094	25824.0187
19.5264	25910.2058
19.5434	26288.3066
19.5604	26688.1658
19.5774	27375.2621
19.5944	28013.224
19.6114	29164.7999
19.6284	31109.5698
19.6454	32427.2163
19.6624	31803.8584
19.6794	31077.3191
19.6964	29929.3954
19.7134	27729.766
19.7304	26269.2329
19.7474	25595.8702
19.7644	24399.5875
19.7814	23640.047
19.7984	23497.7474
19.8154	23278.7096
19.8324	23345.7129
19.8494	23270.6665
19.8664	23237.0083
19.8834	23038.2196
19.9004	23583.3101
19.9174	23732.9939
19.9344	23612.8427
19.9514	23720.8977
19.9684	23848.0238
19.9854	24150.4474
20.0024	24480.3881
20.0194	24787.4218
20.0364	25215.4463
20.0534	25583.1162
20.0704	25885.5373
20.0874	26111.6566
20.1044	26328.9017
20.1214	26263.4113
20.1384	25524.0657
20.1554	25067.931
20.1724	24543.6643
20.1894	23985.2687
20.2064	23602.8657
20.2234	23360.9149
20.2404	23107.2939
20.2574	23023.7122
20.2744	23081.5408
20.2914	22843.8473
20.3084	22841.5513
20.3254	22908.6906
20.3424	22770.0388
20.3594	22799.2203
20.3764	22796.5305
20.3934	22890.2499
20.4104	23121.1536
20.4274	23027.2367
20.4444	22862.9347
20.4614	22781.4462
20.4784	22767.0585
20.4954	23208.5098
20.5124	22848.1087
20.5294	22931.6051
20.5464	22905.8232
20.5634	22961.7116
20.5804	22809.9552
20.5974	23044.7896
20.6144	23066.5917
20.6314	22859.1505
20.6484	22700.2695
20.6654	22880.316
20.6824	23045.0052
20.6994	22840.0277
20.7164	23035.3728
20.7334	23092.0901
20.7504	22689.3717
20.7674	22492.0076
20.7844	22732.3273
20.8014	22726.3391
20.8184	22974.7954
20.8354	22938.9239
20.8524	22594.0416
20.8694	22691.3636
20.8864	22821.3318
20.9034	22811.1677
20.9204	22922.1868
20.9374	22890.3424
20.9544	22627.6513
20.9714	22621.2497
20.9884	22603.5063
21.0054	22760.8578
21.0224	22959.2239
21.0394	22931.1984
21.0564	22878.1319
21.0734	22785.3992
21.0904	22843.9097
21.1074	22729.2387
21.1244	22890.1461
21.1414	22964.7196
21.1584	22861.1053
21.1754	22733.5379
21.1924	22761.1118
21.2094	22900.0259
21.2264	22842.2798
21.2434	22901.0097
21.2604	22859.8713
21.2774	22687.5484
21.2944	22573.9538
21.3114	22758.6346
21.3284	23002.9779
21.3454	22943.0331
21.3624	22905.2331
21.3794	22973.7696
21.3964	22855.7284
21.4134	22826.0848
21.4304	22721.6962
21.4474	22658.6328
21.4644	22900.9621
21.4814	22996.9681
21.4984	23045.8356
21.5154	23151.859
21.5324	22890.6261
21.5494	23181.8188
21.5664	23228.0649
21.5834	23210.6975
21.6004	23083.8706
21.6174	23248.8501
21.6344	23478.6337
21.6514	23402.2875
21.6684	23689.3988
21.6854	23464.1692
21.7024	23365.9368
21.7194	23485.9881
21.7364	23153.0378
21.7534	23185.2031
21.7704	23190.3892
21.7874	23043.0291
21.8044	23126.528
21.8214	23258.0707
21.8384	23056.4611
21.8554	23177.5821
21.8724	23041.0669
21.8894	23119.2253
21.9064	23432.2594
21.9234	23445.542
21.9404	23596.9827
21.9574	23622.8318
21.9744	24018.9123
21.9914	24321.9889
22.0084	24697.2059
22.0254	24557.5301
22.0424	24749.2249
22.0594	25074.3835
22.0764	25442.4173
22.0934	25877.641
22.1104	26755.7426
22.1274	27630.2407
22.1444	28469.638
22.1614	29723.3459
22.1784	31372.2078
22.1954	33685.9896
22.2124	35769.4775
22.2294	37091.646
22.2464	39258.9295
22.2634	42241.3421
22.2804	45761.3874
22.2974	49770.5357
22.3144	54075.9357
22.3314	58604.8371
22.3484	58296.9519
22.3654	50343.5125
22.3824	42791.6465
22.3994	39201.9274
22.4164	34173.5115
22.4334	28145.6904
22.4504	25369.4587
22.4674	24534.387
22.4844	23991.8347
22.5014	23777.6737
22.5184	23571.3187
22.5354	23354.2216
22.5524	23377.2881
22.5694	23581.5996
22.5864	23369.457
22.6034	23525.115
22.6204	23650.8577
22.6374	23180.6295
22.6544	23149.1443
22.6714	23346.9504
22.6884	23257.2209
22.7054	23132.7212
22.7224	23239.4088
22.7394	23058.1494
22.7564	22954.902
22.7734	22590.1808
22.7904	22919.2896
22.8074	22934.1194
22.8244	23028.3907
22.8414	22878.8387
22.8584	22881.6521
22.8754	22665.3546
22.8924	22774.8879
22.9094	22909.8407
22.9264	22995.2501
22.9434	22944.038
22.9604	23165.9034
22.9774	23134.2841
22.9944	22937.8238
23.0114	22786.3352
23.0284	22896.6562
23.0454	23036.422
23.0624	23031.6046
23.0794	23041.4324
23.0964	23053.4134
23.1134	23004.884
23.1304	22712.3872
23.1474	22824.78
23.1644	23054.9704
23.1814	23133.1813
23.1984	23019.925
23.2154	22959.9812
23.2324	22896.0722
23.2494	22830.1112
23.2664	22949.8691
23.2834	22940.3052
23.3004	22879.2742
23.3174	22917.9521
23.3344	22983.142
23.3514	22813.8757
23.3684	22961.0361
23.3854	23232.1621
23.4024	23322.6092
23.4194	23295.2817
23.4364	23113.8007
23.4534	23196.7671
23.4704	22757.3602
23.4874	22927.6803
23.5044	22754.6419
23.5214	22809.4846
23.5384	23034.3286
23.5554	22943.1173
23.5724	23199.2273
23.5894	23004.9693
23.6064	23186.8061
23.6234	23138.3181
23.6404	22938.1909
23.6574	23104.2681
23.6744	23237.2664
23.6914	23091.7956
23.7084	23393.9176
23.7254	23753.0994
23.7424	23968.5265
23.7594	23879.3674
23.7764	24189.0772
23.7934	24274.7974
23.8104	24328.0279
23.8274	24989.8896
23.8444	25334.1751
23.8614	25454.982
23.8784	26044.4383
23.8954	27036.9422
23.9124	28317.8351
23.9294	28547.3406
23.9464	28072.7775
23.9634	26915.2327
23.9804	26600.5841
23.9974	25784.412
24.0144	24590.4583
24.0314	23688.6309
24.0484	23477.3791
24.0654	23181.2326
24.0824	23169.2821
24.0994	23258.1945
24.1164	23274.222
24.1334	23294.5014
24.1504	23326.3684
24.1674	23362.4499
24.1844	23470.4201
24.2014	23440.0687
